SpectraSuite数据文件
++++++++++++++++++++++++++++++++++++
数据: Tue May 26 21:04:51 CST 2020
用户: 216019019
暗光谱: 否
参考光谱: 否
光谱数量: 1
光谱仪: USB2+U19899
积分时间（微秒）: 100000 (USB2+U19899)
平均次数: 1 (USB2+U19899)
平滑度: 0 (USB2+U19899)
去除暗噪声: 否 (USB2+U19899)
使用脉冲信号/灯: 否 (USB2+U19899)
电子暗噪声校正: 否 (USB2+U19899)
杂散光校正: 否 (USB2+U19899)
光谱像素值: 2048
>>>>>Begin Processed Spectral Data<<<<<
177.76	162.71
178.15	162.71
178.54	162.71
178.93	171.75
179.32	183.05
179.70	128.81
180.09	194.35
180.48	219.20
180.87	171.75
181.25	250.84
181.64	275.70
182.03	257.62
182.42	311.86
182.80	298.30
183.19	305.08
183.58	250.84
183.97	386.43
184.36	381.91
184.74	384.17
185.13	442.93
185.52	465.52
185.90	415.81
186.29	456.49
186.68	503.94
187.07	524.28
187.45	510.72
187.84	544.62
188.23	587.56
188.61	542.36
189.00	531.06
189.39	610.15
189.78	531.06
190.16	562.70
190.55	619.19
190.94	592.07
191.32	519.76
191.71	524.28
192.10	528.80
192.48	555.92
192.87	562.70
193.26	555.92
193.64	528.80
194.03	531.06
194.42	580.78
194.80	524.28
195.19	567.22
195.58	574.00
195.96	583.04
196.35	571.74
196.73	553.66
197.12	540.10
197.51	574.00
197.89	546.88
198.28	540.10
198.67	479.08
199.05	569.48
199.44	623.71
199.82	522.02
200.21	485.86
200.60	472.30
200.98	463.26
201.37	574.00
201.75	537.84
202.14	528.80
202.52	562.70
202.91	544.62
203.30	546.88
203.68	589.82
204.07	574.00
204.45	445.19
204.84	510.72
205.22	501.68
205.61	564.96
205.99	562.70
206.38	537.84
206.76	499.42
207.15	506.20
207.54	583.04
207.92	526.54
208.31	503.94
208.69	587.56
209.08	512.98
209.46	558.18
209.85	526.54
210.23	512.98
210.62	522.02
211.00	488.12
211.39	503.94
211.77	574.00
212.16	542.36
212.54	551.40
212.92	506.20
213.31	492.64
213.69	540.10
214.08	517.50
214.46	574.00
214.85	567.22
215.23	562.70
215.62	515.24
216.00	456.49
216.39	526.54
216.77	492.64
217.15	537.84
217.54	537.84
217.92	578.52
218.31	544.62
218.69	465.52
219.08	537.84
219.46	481.34
219.84	522.02
220.23	555.92
220.61	601.11
221.00	490.38
221.38	585.30
221.76	531.06
222.15	499.42
222.53	549.14
222.91	553.66
223.30	567.22
223.68	549.14
224.07	553.66
224.45	533.32
224.83	531.06
225.22	503.94
225.60	526.54
225.98	508.46
226.37	519.76
226.75	517.50
227.13	508.46
227.52	517.50
227.90	540.10
228.28	544.62
228.67	569.48
229.05	535.58
229.43	558.18
229.81	483.60
230.20	551.40
230.58	594.33
230.96	510.72
231.35	587.56
231.73	551.40
232.11	472.30
232.50	542.36
232.88	540.10
233.26	528.80
233.64	492.64
234.03	497.16
234.41	555.92
234.79	585.30
235.17	610.15
235.56	497.16
235.94	542.36
236.32	537.84
236.70	553.66
237.09	571.74
237.47	494.90
237.85	555.92
238.23	592.07
238.61	555.92
239.00	549.14
239.38	607.89
239.76	533.32
240.14	558.18
240.52	512.98
240.91	546.88
241.29	558.18
241.67	558.18
242.05	555.92
242.43	560.44
242.82	549.14
243.20	549.14
243.58	594.33
243.96	576.26
244.34	524.28
244.72	531.06
245.11	578.52
245.49	549.14
245.87	512.98
246.25	519.76
246.63	592.07
247.01	499.42
247.39	544.62
247.78	580.78
248.16	607.89
248.54	540.10
248.92	528.80
249.30	574.00
249.68	587.56
250.06	562.70
250.44	506.20
250.82	562.70
251.21	567.22
251.59	528.80
251.97	494.90
252.35	524.28
252.73	580.78
253.11	607.89
253.49	528.80
253.87	560.44
254.25	585.30
254.63	571.74
255.01	580.78
255.39	569.48
255.77	542.36
256.15	506.20
256.53	512.98
256.91	531.06
257.29	612.41
257.67	567.22
258.05	592.07
258.44	546.88
258.82	499.42
259.20	567.22
259.58	544.62
259.96	524.28
260.34	510.72
260.72	544.62
261.10	605.63
261.48	562.70
261.86	601.11
262.23	580.78
262.61	598.85
262.99	560.44
263.37	549.14
263.75	526.54
264.13	540.10
264.51	535.58
264.89	558.18
265.27	537.84
265.65	578.52
266.03	526.54
266.41	531.06
266.79	535.58
267.17	533.32
267.55	574.00
267.93	585.30
268.31	616.93
268.69	553.66
269.06	564.96
269.44	544.62
269.82	589.82
270.20	553.66
270.58	540.10
270.96	483.60
271.34	533.32
271.72	546.88
272.10	585.30
272.47	601.11
272.85	526.54
273.23	470.04
273.61	510.72
273.99	531.06
274.37	546.88
274.75	531.06
275.12	485.86
275.50	551.40
275.88	578.52
276.26	601.11
276.64	612.41
277.02	580.78
277.39	512.98
277.77	544.62
278.15	499.42
278.53	517.50
278.91	596.59
279.29	558.18
279.66	540.10
280.04	596.59
280.42	553.66
280.80	592.07
281.18	574.00
281.55	533.32
281.93	553.66
282.31	560.44
282.69	537.84
283.06	562.70
283.44	553.66
283.82	519.76
284.20	546.88
284.57	533.32
284.95	578.52
285.33	567.22
285.71	492.64
286.08	540.10
286.46	533.32
286.84	540.10
287.22	519.76
287.59	560.44
287.97	517.50
288.35	535.58
288.72	621.45
289.10	569.48
289.48	625.97
289.85	546.88
290.23	522.02
290.61	531.06
290.99	580.78
291.36	592.07
291.74	569.48
292.12	564.96
292.49	492.64
292.87	531.06
293.25	519.76
293.62	546.88
294.00	537.84
294.38	537.84
294.75	528.80
295.13	479.08
295.50	560.44
295.88	587.56
296.26	560.44
296.63	540.10
297.01	569.48
297.39	553.66
297.76	576.26
298.14	558.18
298.51	610.15
298.89	544.62
299.27	567.22
299.64	578.52
300.02	555.92
300.39	571.74
300.77	630.49
301.14	531.06
301.52	605.63
301.90	560.44
302.27	571.74
302.65	571.74
303.02	598.85
303.40	544.62
303.77	438.41
304.15	497.16
304.52	612.41
304.90	567.22
305.28	526.54
305.65	562.70
306.03	603.37
306.40	549.14
306.78	621.45
307.15	524.28
307.53	533.32
307.90	580.78
308.28	528.80
308.65	483.60
309.03	567.22
309.40	585.30
309.78	574.00
310.15	555.92
310.53	596.59
310.90	583.04
311.28	587.56
311.65	594.33
312.02	494.90
312.40	528.80
312.77	564.96
313.15	546.88
313.52	583.04
313.90	576.26
314.27	528.80
314.65	512.98
315.02	576.26
315.39	551.40
315.77	603.37
316.14	623.71
316.52	537.84
316.89	574.00
317.27	567.22
317.64	576.26
318.01	535.58
318.39	580.78
318.76	648.57
319.13	587.56
319.51	549.14
319.88	551.40
320.26	558.18
320.63	542.36
321.00	564.96
321.38	540.10
321.75	499.42
322.12	616.93
322.50	497.16
322.87	535.58
323.24	533.32
323.62	546.88
323.99	587.56
324.36	560.44
324.74	603.37
325.11	540.10
325.48	542.36
325.86	524.28
326.23	580.78
326.60	535.58
326.98	517.50
327.35	517.50
327.72	560.44
328.10	531.06
328.47	551.40
328.84	531.06
329.21	551.40
329.59	603.37
329.96	567.22
330.33	551.40
330.70	519.76
331.08	555.92
331.45	578.52
331.82	549.14
332.19	555.92
332.57	603.37
332.94	549.14
333.31	576.26
333.68	601.11
334.06	574.00
334.43	607.89
334.80	596.59
335.17	578.52
335.54	535.58
335.92	535.58
336.29	519.76
336.66	555.92
337.03	555.92
337.40	524.28
337.78	619.19
338.15	544.62
338.52	587.56
338.89	510.72
339.26	501.68
339.63	555.92
340.01	564.96
340.38	555.92
340.75	519.76
341.12	544.62
341.49	605.63
341.86	546.88
342.24	519.76
342.61	544.62
342.98	569.48
343.35	571.74
343.72	551.40
344.09	479.08
344.46	574.00
344.83	587.56
345.20	515.24
345.58	501.68
345.95	510.72
346.32	528.80
346.69	549.14
347.06	596.59
347.43	583.04
347.80	506.20
348.17	449.71
348.54	583.04
348.91	519.76
349.28	517.50
349.65	537.84
350.02	594.33
350.39	515.24
350.77	607.89
351.14	555.92
351.51	537.84
351.88	628.23
352.25	578.52
352.62	592.07
352.99	578.52
353.36	510.72
353.73	612.41
354.10	517.50
354.47	519.76
354.84	587.56
355.21	585.30
355.58	596.59
355.95	621.45
356.32	537.84
356.69	594.33
357.06	558.18
357.43	603.37
357.80	526.54
358.16	512.98
358.53	607.89
358.90	551.40
359.27	558.18
359.64	639.53
360.01	549.14
360.38	603.37
360.75	522.02
361.12	567.22
361.49	551.40
361.86	549.14
362.23	585.30
362.60	537.84
362.97	551.40
363.34	567.22
363.70	537.84
364.07	576.26
364.44	506.20
364.81	574.00
365.18	569.48
365.55	583.04
365.92	526.54
366.29	580.78
366.65	567.22
367.02	531.06
367.39	501.68
367.76	535.58
368.13	639.53
368.50	551.40
368.87	564.96
369.23	567.22
369.60	517.50
369.97	549.14
370.34	531.06
370.71	564.96
371.08	506.20
371.44	585.30
371.81	551.40
372.18	562.70
372.55	598.85
372.92	555.92
373.28	567.22
373.65	560.44
374.02	580.78
374.39	481.34
374.75	546.88
375.12	598.85
375.49	594.33
375.86	578.52
376.23	576.26
376.59	610.15
376.96	594.33
377.33	553.66
377.70	549.14
378.06	549.14
378.43	578.52
378.80	578.52
379.16	555.92
379.53	524.28
379.90	546.88
380.27	542.36
380.63	580.78
381.00	544.62
381.37	612.41
381.73	621.45
382.10	616.93
382.47	551.40
382.83	544.62
383.20	583.04
383.57	596.59
383.93	551.40
384.30	522.02
384.67	503.94
385.03	567.22
385.40	567.22
385.77	560.44
386.13	567.22
386.50	533.32
386.87	544.62
387.23	544.62
387.60	574.00
387.97	567.22
388.33	508.46
388.70	540.10
389.06	522.02
389.43	549.14
389.80	601.11
390.16	524.28
390.53	567.22
390.89	585.30
391.26	558.18
391.63	564.96
391.99	576.26
392.36	553.66
392.72	560.44
393.09	503.94
393.46	524.28
393.82	512.98
394.19	578.52
394.55	585.30
394.92	587.56
395.28	537.84
395.65	567.22
396.01	540.10
396.38	603.37
396.74	592.07
397.11	535.58
397.47	553.66
397.84	567.22
398.20	512.98
398.57	542.36
398.93	490.38
399.30	540.10
399.66	562.70
400.03	567.22
400.39	578.52
400.76	578.52
401.12	537.84
401.49	542.36
401.85	512.98
402.22	562.70
402.58	526.54
402.95	531.06
403.31	623.71
403.68	515.24
404.04	531.06
404.40	578.52
404.77	560.44
405.13	519.76
405.50	535.58
405.86	578.52
406.23	580.78
406.59	564.96
406.95	533.32
407.32	553.66
407.68	571.74
408.05	553.66
408.41	501.68
408.77	587.56
409.14	551.40
409.50	567.22
409.87	544.62
410.23	524.28
410.59	542.36
410.96	524.28
411.32	510.72
411.68	512.98
412.05	524.28
412.41	574.00
412.77	506.20
413.14	623.71
413.50	551.40
413.86	607.89
414.23	551.40
414.59	605.63
414.95	512.98
415.32	689.25
415.68	574.00
416.04	508.46
416.41	551.40
416.77	515.24
417.13	526.54
417.49	592.07
417.86	601.11
418.22	535.58
418.58	564.96
418.95	540.10
419.31	490.38
419.67	567.22
420.03	519.76
420.40	544.62
420.76	567.22
421.12	562.70
421.48	585.30
421.85	598.85
422.21	567.22
422.57	528.80
422.93	551.40
423.29	499.42
423.66	571.74
424.02	601.11
424.38	580.78
424.74	526.54
425.10	580.78
425.47	583.04
425.83	546.88
426.19	596.59
426.55	605.63
426.91	564.96
427.28	598.85
427.64	551.40
428.00	587.56
428.36	578.52
428.72	544.62
429.08	596.59
429.44	628.23
429.81	503.94
430.17	555.92
430.53	574.00
430.89	587.56
431.25	551.40
431.61	574.00
431.97	630.49
432.33	616.93
432.70	637.27
433.06	576.26
433.42	571.74
433.78	587.56
434.14	546.88
434.50	571.74
434.86	537.84
435.22	587.56
435.58	567.22
435.94	587.56
436.30	571.74
436.66	558.18
437.03	580.78
437.39	594.33
437.75	537.84
438.11	641.79
438.47	625.97
438.83	682.47
439.19	553.66
439.55	596.59
439.91	657.61
440.27	650.83
440.63	594.33
440.99	623.71
441.35	587.56
441.71	637.27
442.07	598.85
442.43	592.07
442.79	589.82
443.15	607.89
443.51	619.19
443.87	560.44
444.23	578.52
444.59	693.77
444.95	585.30
445.31	515.24
445.67	610.15
446.03	578.52
446.38	659.87
446.74	711.85
447.10	635.01
447.46	621.45
447.82	619.19
448.18	630.49
448.54	560.44
448.90	603.37
449.26	628.23
449.62	607.89
449.98	571.74
450.34	553.66
450.69	644.05
451.05	585.30
451.41	677.95
451.77	639.53
452.13	625.97
452.49	644.05
452.85	625.97
453.21	641.79
453.56	653.09
453.92	623.71
454.28	585.30
454.64	551.40
455.00	562.70
455.36	598.85
455.72	628.23
456.07	614.67
456.43	623.71
456.79	583.04
457.15	574.00
457.51	668.91
457.86	587.56
458.22	635.01
458.58	655.35
458.94	564.96
459.30	628.23
459.65	594.33
460.01	594.33
460.37	612.41
460.73	596.59
461.08	601.11
461.44	621.45
461.80	605.63
462.16	630.49
462.51	560.44
462.87	564.96
463.23	578.52
463.59	637.27
463.94	614.67
464.30	666.65
464.66	668.91
465.02	686.99
465.37	632.75
465.73	603.37
466.09	693.77
466.44	596.59
466.80	607.89
467.16	675.69
467.52	610.15
467.87	673.43
468.23	666.65
468.59	616.93
468.94	705.07
469.30	684.73
469.66	677.95
470.01	668.91
470.37	705.07
470.73	664.39
471.08	612.41
471.44	653.09
471.79	702.81
472.15	653.09
472.51	650.83
472.86	698.29
473.22	705.07
473.58	680.21
473.93	673.43
474.29	693.77
474.64	700.55
475.00	644.05
475.36	675.69
475.71	680.21
476.07	625.97
476.42	610.15
476.78	673.43
477.13	709.59
477.49	682.47
477.85	748.00
478.20	698.29
478.56	686.99
478.91	718.63
479.27	625.97
479.62	680.21
479.98	684.73
480.33	680.21
480.69	723.14
481.04	682.47
481.40	637.27
481.75	748.00
482.11	639.53
482.47	680.21
482.82	725.40
483.18	707.33
483.53	693.77
483.88	693.77
484.24	693.77
484.59	743.48
484.95	750.26
485.30	686.99
485.66	759.30
486.01	675.69
486.37	729.92
486.72	693.77
487.08	711.85
487.43	736.70
487.79	784.16
488.14	736.70
488.49	718.63
488.85	727.66
489.20	745.74
489.56	809.02
489.91	759.30
490.27	732.18
490.62	743.48
490.97	714.11
491.33	702.81
491.68	705.07
492.03	752.52
492.39	745.74
492.74	752.52
493.10	705.07
493.45	827.10
493.80	809.02
494.16	736.70
494.51	781.90
494.86	716.37
495.22	860.99
495.57	741.22
495.92	772.86
496.28	815.80
496.63	772.86
496.98	777.38
497.34	806.76
497.69	802.24
498.04	720.88
498.40	754.78
498.75	840.66
499.10	815.80
499.46	831.62
499.81	781.90
500.16	872.29
500.51	790.94
500.87	809.02
501.22	793.20
501.57	820.32
501.92	741.22
502.28	822.58
502.63	804.50
502.98	772.86
503.34	851.96
503.69	793.20
504.04	849.70
504.39	813.54
504.74	840.66
505.10	836.14
505.45	815.80
505.80	851.96
506.15	829.36
506.51	881.33
506.86	872.29
507.21	894.89
507.56	831.62
507.91	922.01
508.26	876.81
508.62	838.40
508.97	872.29
509.32	863.25
509.67	840.66
510.02	854.21
510.37	872.29
510.73	870.03
511.08	876.81
511.43	840.66
511.78	940.09
512.13	849.70
512.48	910.71
512.83	937.83
513.19	806.76
513.54	879.07
513.89	854.21
514.24	881.33
514.59	922.01
514.94	899.41
515.29	865.51
515.64	845.18
515.99	906.19
516.34	906.19
516.69	870.03
517.05	924.27
517.40	885.85
517.75	894.89
518.10	863.25
518.45	928.79
518.80	955.91
519.15	838.40
519.50	872.29
519.85	854.21
520.20	919.75
520.55	903.93
520.90	922.01
521.25	908.45
521.60	922.01
521.95	946.87
522.30	958.17
522.65	879.07
523.00	879.07
523.35	894.89
523.70	944.61
524.05	1005.62
524.40	870.03
524.75	910.71
525.10	876.81
525.45	951.39
525.80	996.58
526.15	953.65
526.50	928.79
526.85	915.23
527.20	874.55
527.55	915.23
527.90	976.25
528.24	912.97
528.59	933.31
528.94	894.89
529.29	858.73
529.64	883.59
529.99	901.67
530.34	872.29
530.69	915.23
531.04	933.31
531.39	958.17
531.73	894.89
532.08	924.27
532.43	962.69
532.78	919.75
533.13	874.55
533.48	851.96
533.83	863.25
534.17	863.25
534.52	903.93
534.87	881.33
535.22	874.55
535.57	860.99
535.92	903.93
536.27	906.19
536.61	865.51
536.96	809.02
537.31	922.01
537.66	836.14
538.01	901.67
538.35	870.03
538.70	888.11
539.05	883.59
539.40	888.11
539.74	863.25
540.09	824.84
540.44	951.39
540.79	949.13
541.14	899.41
541.48	865.51
541.83	847.44
542.18	922.01
542.53	951.39
542.87	874.55
543.22	833.88
543.57	858.73
543.91	876.81
544.26	851.96
544.61	883.59
544.96	867.77
545.30	840.66
545.65	881.33
546.00	874.55
546.34	842.92
546.69	903.93
547.04	903.93
547.38	881.33
547.73	881.33
548.08	815.80
548.42	845.18
548.77	872.29
549.12	892.63
549.46	824.84
549.81	942.35
550.16	854.21
550.50	885.85
550.85	827.10
551.20	865.51
551.54	851.96
551.89	858.73
552.23	847.44
552.58	901.67
552.93	901.67
553.27	912.97
553.62	903.93
553.96	881.33
554.31	879.07
554.66	863.25
555.00	802.24
555.35	860.99
555.69	813.54
556.04	872.29
556.38	831.62
556.73	872.29
557.08	870.03
557.42	881.33
557.77	876.81
558.11	790.94
558.46	881.33
558.80	897.15
559.15	804.50
559.49	863.25
559.84	836.14
560.18	897.15
560.53	845.18
560.87	858.73
561.22	892.63
561.56	804.50
561.91	944.61
562.25	892.63
562.60	824.84
562.94	851.96
563.29	915.23
563.63	858.73
563.98	833.88
564.32	847.44
564.66	931.05
565.01	872.29
565.35	788.68
565.70	860.99
566.04	836.14
566.39	922.01
566.73	906.19
567.07	851.96
567.42	818.06
567.76	865.51
568.11	883.59
568.45	813.54
568.80	851.96
569.14	901.67
569.48	838.40
569.83	836.14
570.17	903.93
570.51	940.09
570.86	899.41
571.20	940.09
571.54	901.67
571.89	849.70
572.23	922.01
572.58	906.19
572.92	870.03
573.26	906.19
573.61	903.93
573.95	849.70
574.29	827.10
574.63	872.29
574.98	804.50
575.32	897.15
575.66	955.91
576.01	813.54
576.35	856.47
576.69	849.70
577.04	833.88
577.38	818.06
577.72	809.02
578.06	833.88
578.41	772.86
578.75	874.55
579.09	915.23
579.43	872.29
579.78	894.89
580.12	777.38
580.46	804.50
580.80	797.72
581.15	829.36
581.49	924.27
581.83	863.25
582.17	845.18
582.51	863.25
582.86	842.92
583.20	799.98
583.54	750.26
583.88	838.40
584.22	831.62
584.57	876.81
584.91	872.29
585.25	781.90
585.59	860.99
585.93	876.81
586.27	876.81
586.62	910.71
586.96	806.76
587.30	840.66
587.64	813.54
587.98	901.67
588.32	799.98
588.66	863.25
589.01	860.99
589.35	838.40
589.69	813.54
590.03	790.94
590.37	775.12
590.71	867.77
591.05	860.99
591.39	838.40
591.73	888.11
592.07	831.62
592.41	829.36
592.76	860.99
593.10	820.32
593.44	818.06
593.78	931.05
594.12	876.81
594.46	856.47
594.80	802.24
595.14	813.54
595.48	779.64
595.82	872.29
596.16	836.14
596.50	804.50
596.84	863.25
597.18	860.99
597.52	797.72
597.86	879.07
598.20	883.59
598.54	759.30
598.88	856.47
599.22	802.24
599.56	777.38
599.90	815.80
600.24	851.96
600.58	899.41
600.92	822.58
601.26	813.54
601.60	872.29
601.94	851.96
602.28	815.80
602.62	822.58
602.95	836.14
603.29	833.88
603.63	836.14
603.97	809.02
604.31	802.24
604.65	754.78
604.99	759.30
605.33	775.12
605.67	766.08
606.01	860.99
606.34	822.58
606.68	720.88
607.02	795.46
607.36	752.52
607.70	693.77
608.04	836.14
608.38	732.18
608.71	738.96
609.05	750.26
609.39	732.18
609.73	768.34
610.07	763.82
610.41	763.82
610.74	813.54
611.08	698.29
611.42	802.24
611.76	795.46
612.10	711.85
612.44	752.52
612.77	738.96
613.11	781.90
613.45	700.55
613.79	777.38
614.12	770.60
614.46	777.38
614.80	784.16
615.14	813.54
615.47	696.03
615.81	815.80
616.15	707.33
616.49	714.11
616.82	705.07
617.16	797.72
617.50	748.00
617.84	781.90
618.17	811.28
618.51	772.86
618.85	718.63
619.18	725.40
619.52	693.77
619.86	729.92
620.20	729.92
620.53	795.46
620.87	748.00
621.21	693.77
621.54	759.30
621.88	705.07
622.22	691.51
622.55	763.82
622.89	754.78
623.22	770.60
623.56	718.63
623.90	738.96
624.23	696.03
624.57	680.21
624.91	795.46
625.24	761.56
625.58	761.56
625.91	804.50
626.25	711.85
626.59	677.95
626.92	763.82
627.26	766.08
627.59	709.59
627.93	748.00
628.27	804.50
628.60	677.95
628.94	750.26
629.27	752.52
629.61	709.59
629.94	691.51
630.28	781.90
630.61	743.48
630.95	750.26
631.29	770.60
631.62	768.34
631.96	720.88
632.29	698.29
632.63	709.59
632.96	734.44
633.30	680.21
633.63	727.66
633.97	743.48
634.30	700.55
634.64	664.39
634.97	741.22
635.31	707.33
635.64	682.47
635.97	720.88
636.31	700.55
636.64	659.87
636.98	693.77
637.31	696.03
637.65	696.03
637.98	725.40
638.32	664.39
638.65	723.14
638.98	625.97
639.32	720.88
639.65	644.05
639.99	659.87
640.32	628.23
640.65	671.17
640.99	750.26
641.32	646.31
641.66	693.77
641.99	616.93
642.32	698.29
642.66	693.77
642.99	705.07
643.32	691.51
643.66	738.96
643.99	763.82
644.33	743.48
644.66	698.29
644.99	720.88
645.33	709.59
645.66	680.21
645.99	684.73
646.32	714.11
646.66	639.53
646.99	612.41
647.32	616.93
647.66	632.75
647.99	725.40
648.32	718.63
648.66	657.61
648.99	680.21
649.32	623.71
649.65	653.09
649.99	592.07
650.32	686.99
650.65	641.79
650.98	700.55
651.32	637.27
651.65	621.45
651.98	680.21
652.31	657.61
652.65	603.37
652.98	664.39
653.31	700.55
653.64	671.17
653.97	686.99
654.31	625.97
654.64	614.67
654.97	641.79
655.30	677.95
655.63	614.67
655.97	596.59
656.30	596.59
656.63	662.13
656.96	625.97
657.29	648.57
657.62	646.31
657.95	698.29
658.29	671.17
658.62	625.97
658.95	637.27
659.28	637.27
659.61	592.07
659.94	635.01
660.27	619.19
660.60	601.11
660.94	630.49
661.27	594.33
661.60	607.89
661.93	621.45
662.26	632.75
662.59	603.37
662.92	567.22
663.25	576.26
663.58	630.49
663.91	632.75
664.24	625.97
664.57	628.23
664.90	666.65
665.23	587.56
665.57	625.97
665.90	596.59
666.23	619.19
666.56	601.11
666.89	648.57
667.22	619.19
667.55	549.14
667.88	635.01
668.21	616.93
668.54	612.41
668.87	571.74
669.20	603.37
669.53	594.33
669.86	583.04
670.18	632.75
670.51	639.53
670.84	583.04
671.17	610.15
671.50	564.96
671.83	578.52
672.16	596.59
672.49	664.39
672.82	637.27
673.15	612.41
673.48	598.85
673.81	601.11
674.14	596.59
674.47	705.07
674.80	610.15
675.12	607.89
675.45	603.37
675.78	601.11
676.11	635.01
676.44	619.19
676.77	625.97
677.10	598.85
677.43	560.44
677.75	553.66
678.08	567.22
678.41	603.37
678.74	592.07
679.07	673.43
679.40	578.52
679.72	587.56
680.05	533.32
680.38	598.85
680.71	542.36
681.04	562.70
681.36	589.82
681.69	535.58
682.02	630.49
682.35	603.37
682.68	571.74
683.00	569.48
683.33	596.59
683.66	637.27
683.99	596.59
684.31	628.23
684.64	567.22
684.97	607.89
685.30	510.72
685.62	583.04
685.95	601.11
686.28	628.23
686.61	589.82
686.93	574.00
687.26	592.07
687.59	598.85
687.91	598.85
688.24	648.57
688.57	616.93
688.90	630.49
689.22	578.52
689.55	594.33
689.88	551.40
690.20	632.75
690.53	535.58
690.86	564.96
691.18	578.52
691.51	535.58
691.83	648.57
692.16	567.22
692.49	558.18
692.81	555.92
693.14	533.32
693.47	576.26
693.79	553.66
694.12	560.44
694.44	625.97
694.77	567.22
695.10	614.67
695.42	621.45
695.75	569.48
696.07	576.26
696.40	535.58
696.73	639.53
697.05	625.97
697.38	612.41
697.70	596.59
698.03	680.21
698.35	578.52
698.68	551.40
699.00	587.56
699.33	567.22
699.65	589.82
699.98	560.44
700.30	607.89
700.63	578.52
700.95	564.96
701.28	546.88
701.60	578.52
701.93	589.82
702.25	628.23
702.58	596.59
702.90	585.30
703.23	607.89
703.55	562.70
703.88	587.56
704.20	637.27
704.53	594.33
704.85	551.40
705.18	528.80
705.50	517.50
705.82	562.70
706.15	603.37
706.47	535.58
706.80	524.28
707.12	549.14
707.45	553.66
707.77	531.06
708.09	510.72
708.42	560.44
708.74	614.67
709.07	576.26
709.39	587.56
709.71	657.61
710.04	517.50
710.36	587.56
710.68	614.67
711.01	576.26
711.33	551.40
711.65	612.41
711.98	574.00
712.30	564.96
712.62	558.18
712.95	560.44
713.27	560.44
713.59	537.84
713.92	607.89
714.24	576.26
714.56	562.70
714.89	558.18
715.21	596.59
715.53	515.24
715.85	544.62
716.18	630.49
716.50	524.28
716.82	512.98
717.14	614.67
717.47	553.66
717.79	531.06
718.11	571.74
718.43	596.59
718.76	483.60
719.08	551.40
719.40	580.78
719.72	576.26
720.04	623.71
720.37	635.01
720.69	562.70
721.01	587.56
721.33	576.26
721.65	544.62
721.98	533.32
722.30	567.22
722.62	522.02
722.94	564.96
723.26	533.32
723.58	574.00
723.91	567.22
724.23	537.84
724.55	598.85
724.87	596.59
725.19	616.93
725.51	585.30
725.83	549.14
726.16	560.44
726.48	562.70
726.80	628.23
727.12	562.70
727.44	605.63
727.76	592.07
728.08	587.56
728.40	589.82
728.72	589.82
729.04	524.28
729.36	528.80
729.69	603.37
730.01	592.07
730.33	574.00
730.65	544.62
730.97	587.56
731.29	553.66
731.61	574.00
731.93	549.14
732.25	601.11
732.57	549.14
732.89	569.48
733.21	610.15
733.53	553.66
733.85	578.52
734.17	585.30
734.49	512.98
734.81	555.92
735.13	576.26
735.45	576.26
735.77	533.32
736.09	506.20
736.41	650.83
736.73	558.18
737.05	605.63
737.36	549.14
737.68	562.70
738.00	562.70
738.32	542.36
738.64	625.97
738.96	522.02
739.28	560.44
739.60	648.57
739.92	531.06
740.24	551.40
740.56	653.09
740.87	544.62
741.19	583.04
741.51	546.88
741.83	567.22
742.15	592.07
742.47	537.84
742.79	616.93
743.11	562.70
743.42	603.37
743.74	503.94
744.06	519.76
744.38	553.66
744.70	560.44
745.01	596.59
745.33	508.46
745.65	490.38
745.97	583.04
746.29	603.37
746.61	535.58
746.92	524.28
747.24	562.70
747.56	519.76
747.88	560.44
748.19	569.48
748.51	542.36
748.83	533.32
749.15	560.44
749.46	585.30
749.78	508.46
750.10	589.82
750.42	560.44
750.73	619.19
751.05	574.00
751.37	587.56
751.69	537.84
752.00	567.22
752.32	519.76
752.64	560.44
752.95	546.88
753.27	551.40
753.59	558.18
753.90	578.52
754.22	526.54
754.54	574.00
754.85	535.58
755.17	533.32
755.49	596.59
755.80	551.40
756.12	497.16
756.44	551.40
756.75	576.26
757.07	567.22
757.38	635.01
757.70	555.92
758.02	526.54
758.33	537.84
758.65	567.22
758.96	596.59
759.28	585.30
759.60	569.48
759.91	540.10
760.23	601.11
760.54	574.00
760.86	585.30
761.17	574.00
761.49	551.40
761.81	578.52
762.12	598.85
762.44	558.18
762.75	594.33
763.07	494.90
763.38	560.44
763.70	553.66
764.01	542.36
764.33	546.88
764.64	614.67
764.96	583.04
765.27	585.30
765.59	524.28
765.90	483.60
766.22	528.80
766.53	569.48
766.85	605.63
767.16	553.66
767.48	533.32
767.79	574.00
768.10	601.11
768.42	526.54
768.73	528.80
769.05	551.40
769.36	583.04
769.68	596.59
769.99	587.56
770.30	531.06
770.62	528.80
770.93	544.62
771.25	524.28
771.56	585.30
771.87	585.30
772.19	569.48
772.50	616.93
772.82	490.38
773.13	501.68
773.44	625.97
773.76	497.16
774.07	619.19
774.38	625.97
774.70	528.80
775.01	564.96
775.32	562.70
775.64	524.28
775.95	560.44
776.26	542.36
776.58	560.44
776.89	467.78
777.20	596.59
777.51	583.04
777.83	605.63
778.14	501.68
778.45	555.92
778.77	601.11
779.08	594.33
779.39	571.74
779.70	571.74
780.02	490.38
780.33	533.32
780.64	544.62
780.95	560.44
781.27	528.80
781.58	589.82
781.89	571.74
782.20	605.63
782.51	583.04
782.83	535.58
783.14	576.26
783.45	567.22
783.76	564.96
784.07	522.02
784.39	497.16
784.70	492.64
785.01	567.22
785.32	619.19
785.63	558.18
785.94	553.66
786.25	551.40
786.57	537.84
786.88	603.37
787.19	463.26
787.50	519.76
787.81	551.40
788.12	494.90
788.43	542.36
788.74	612.41
789.06	533.32
789.37	540.10
789.68	637.27
789.99	596.59
790.30	526.54
790.61	522.02
790.92	594.33
791.23	544.62
791.54	625.97
791.85	569.48
792.16	560.44
792.47	583.04
792.78	544.62
793.09	578.52
793.40	558.18
793.71	497.16
794.02	506.20
794.33	576.26
794.64	549.14
794.95	510.72
795.26	540.10
795.57	603.37
795.88	598.85
796.19	528.80
796.50	540.10
796.81	639.53
797.12	601.11
797.43	564.96
797.74	524.28
798.05	494.90
798.36	492.64
798.67	578.52
798.98	560.44
799.29	512.98
799.60	488.12
799.91	574.00
800.22	585.30
800.53	533.32
800.84	574.00
801.14	569.48
801.45	585.30
801.76	610.15
802.07	567.22
802.38	510.72
802.69	544.62
803.00	553.66
803.31	569.48
803.61	517.50
803.92	574.00
804.23	562.70
804.54	567.22
804.85	542.36
805.16	549.14
805.46	555.92
805.77	560.44
806.08	522.02
806.39	576.26
806.70	562.70
807.00	603.37
807.31	519.76
807.62	553.66
807.93	567.22
808.24	571.74
808.54	562.70
808.85	619.19
809.16	531.06
809.47	567.22
809.77	580.78
810.08	612.41
810.39	555.92
810.70	574.00
811.00	571.74
811.31	594.33
811.62	542.36
811.92	535.58
812.23	526.54
812.54	583.04
812.85	542.36
813.15	592.07
813.46	623.71
813.77	639.53
814.07	555.92
814.38	601.11
814.69	564.96
814.99	605.63
815.30	571.74
815.61	576.26
815.91	567.22
816.22	526.54
816.53	612.41
816.83	585.30
817.14	580.78
817.44	562.70
817.75	603.37
818.06	578.52
818.36	558.18
818.67	531.06
818.97	555.92
819.28	522.02
819.59	544.62
819.89	551.40
820.20	499.42
820.50	479.08
820.81	562.70
821.11	553.66
821.42	522.02
821.72	555.92
822.03	587.56
822.34	594.33
822.64	553.66
822.95	569.48
823.25	571.74
823.56	562.70
823.86	549.14
824.17	551.40
824.47	535.58
824.78	580.78
825.08	549.14
825.39	562.70
825.69	522.02
826.00	574.00
826.30	576.26
826.60	517.50
826.91	607.89
827.21	596.59
827.52	551.40
827.82	526.54
828.13	574.00
828.43	596.59
828.74	540.10
829.04	506.20
829.34	506.20
829.65	574.00
829.95	637.27
830.26	555.92
830.56	601.11
830.86	555.92
831.17	531.06
831.47	549.14
831.77	533.32
832.08	546.88
832.38	533.32
832.69	546.88
832.99	546.88
833.29	528.80
833.60	519.76
833.90	578.52
834.20	639.53
834.51	596.59
834.81	610.15
835.11	494.90
835.41	576.26
835.72	492.64
836.02	537.84
836.32	558.18
836.63	571.74
836.93	551.40
837.23	553.66
837.53	564.96
837.84	474.56
838.14	544.62
838.44	542.36
838.74	560.44
839.05	589.82
839.35	598.85
839.65	601.11
839.95	594.33
840.26	546.88
840.56	524.28
840.86	578.52
841.16	610.15
841.46	605.63
841.77	567.22
842.07	603.37
842.37	571.74
842.67	632.75
842.97	596.59
843.28	569.48
843.58	589.82
843.88	607.89
844.18	569.48
844.48	569.48
844.78	571.74
845.08	549.14
845.39	562.70
845.69	562.70
845.99	589.82
846.29	542.36
846.59	598.85
846.89	571.74
847.19	526.54
847.49	515.24
847.79	533.32
848.09	592.07
848.40	562.70
848.70	571.74
849.00	553.66
849.30	569.48
849.60	562.70
849.90	562.70
850.20	619.19
850.50	555.92
850.80	490.38
851.10	601.11
851.40	560.44
851.70	580.78
852.00	598.85
852.30	571.74
852.60	481.34
852.90	571.74
853.20	546.88
853.50	512.98
853.80	583.04
854.10	601.11
854.40	596.59
854.70	544.62
855.00	512.98
855.30	553.66
855.60	553.66
855.90	560.44
856.20	560.44
856.50	596.59
856.79	607.89
857.09	524.28
857.39	526.54
857.69	558.18
857.99	569.48
858.29	589.82
858.59	598.85
858.89	589.82
859.19	517.50
859.49	555.92
859.78	555.92
860.08	528.80
860.38	592.07
860.68	569.48
860.98	533.32
861.28	574.00
861.58	616.93
861.87	583.04
862.17	531.06
862.47	533.32
862.77	517.50
863.07	526.54
863.36	592.07
863.66	549.14
863.96	542.36
864.26	542.36
864.56	571.74
864.85	585.30
865.15	576.26
865.45	594.33
865.75	594.33
866.04	564.96
866.34	549.14
866.64	540.10
866.94	571.74
867.23	540.10
867.53	546.88
867.83	567.22
868.13	578.52
868.42	616.93
868.72	560.44
869.02	553.66
869.31	528.80
869.61	564.96
869.91	544.62
870.21	567.22
870.50	497.16
870.80	614.67
871.10	551.40
871.39	560.44
871.69	549.14
871.98	553.66
872.28	580.78
872.58	531.06
872.87	562.70
873.17	490.38
873.47	607.89
873.76	551.40
874.06	580.78
874.35	553.66
874.65	596.59
874.95	535.58
875.24	551.40
875.54	578.52
875.83	564.96
876.13	558.18
876.43	644.05
876.72	494.90
877.02	614.67
877.31	587.56
877.61	574.00
877.90	524.28
878.20	544.62
878.49	549.14
878.79	580.78
879.08	574.00
879.38	598.85
879.67	555.92
879.97	474.56
880.26	558.18
880.56	596.59
880.85	560.44
881.15	492.64
881.44	553.66
881.74	580.78
882.03	537.84
882.33	537.84
882.62	537.84
>>>>>End Processed Spectral Data<<<<<
